CV Measurement
:Program Version
13.8.2003 Moll, 4.2008 Fahrer, 6.2011 Gabrysch
:Program Library
CVIV.llb
:start
18/12/2017 11:05:47
:stop
18/12/2017 11:10:38
:elapsed [s]
291.6
:gpib bus delay [ms]
50
:device
W4-B226-S4
:tester
Andrea
:environment
Probe Station (28-2-019)
:comment
LGAD 50 microns, unirradiated, 20C, guard ring connected
:annealing time [min]
<not set>
:material
p FZ
:temperature [C]
20.00
:ToolID
1102
:GuardRingConnection
1
:Region
0
:Instruments
V source: Keithley 237
- current compilance [A]: 1.000E-3
- integration time: 4 ms
- filter (averaging): 8
- source range: 1.1V
LCR meter: Agilent E4980A
- Frequency: 10000 Hz
- Signal level: 500 mV
- Averaging: 10
:LCR open correction: C[F] , G[S]
4.383E-11, 1.023E-8
:ramp up step [V], delay [s], down step [V], delay[s]
2.0, 1.0, 20.0, 0.5
:set voltage start [V], voltage stop [V], number of steps
-0.0, -100.0, 20
:measured voltage start [V], voltage stop [V], number of steps
-1.0, -140.0, 42
:step mode
voltages from file
:legend
V_detector [V]	Capacitance [F]	Conductivity [S]	Bias [V]	Current Power Supply [A]
BEGIN
-9.999656E-1	1.132043E-9	2.390986E-6	-1.000000E+0	-2.814800E-10
-1.499912E+0	1.017363E-9	1.934136E-6	-1.500000E+0	-7.170100E-10
-1.999925E+0	9.319901E-10	1.627776E-6	-2.000000E+0	-6.122600E-10
-2.499944E+0	8.660521E-10	1.410586E-6	-2.500000E+0	-4.559000E-10
-2.999892E+0	8.122151E-10	1.245346E-6	-3.000000E+0	-8.883600E-10
-3.499558E+0	7.664771E-10	1.113436E-6	-3.500000E+0	-3.618600E-9
-3.999939E+0	7.228531E-10	9.945858E-7	-4.000000E+0	-4.958800E-10
-4.498678E+0	6.896141E-10	9.087708E-7	-4.500000E+0	-1.083200E-8
-4.999119E+0	6.604751E-10	8.373608E-7	-5.000000E+0	-7.217100E-9
-5.998837E+0	6.105201E-10	7.222778E-7	-6.000000E+0	-9.528000E-9
-6.998097E+0	5.693771E-10	6.347078E-7	-7.000000E+0	-1.558500E-8
-7.997148E+0	5.322681E-10	5.631908E-7	-8.000000E+0	-2.336100E-8
-8.994962E+0	5.027061E-10	5.121648E-7	-9.000000E+0	-4.126600E-8
-9.992202E+0	4.766581E-10	4.724558E-7	-1.000000E+1	-6.387100E-8
-1.198372E+1	4.314901E-10	4.191788E-7	-1.200000E+1	-1.333300E-7
-1.396823E+1	3.960961E-10	3.987268E-7	-1.400000E+1	-2.601800E-7
-1.594224E+1	3.651201E-10	4.003258E-7	-1.600000E+1	-4.730700E-7
-1.791223E+1	3.393831E-10	4.171538E-7	-1.800000E+1	-7.188600E-7
-1.986990E+1	3.167141E-10	4.412048E-7	-2.000000E+1	-1.065600E-6
-2.182028E+1	2.957851E-10	4.687948E-7	-2.200000E+1	-1.472000E-6
-2.376421E+1	2.773601E-10	4.938528E-7	-2.400000E+1	-1.931300E-6
-2.570209E+1	2.596431E-10	5.157638E-7	-2.600000E+1	-2.440100E-6
-2.763073E+1	2.434691E-10	5.309558E-7	-2.800000E+1	-3.024600E-6
-2.955956E+1	2.272521E-10	5.393948E-7	-3.000000E+1	-3.607500E-6
-3.436276E+1	1.864581E-10	5.222308E-7	-3.500000E+1	-5.219400E-6
-3.916215E+1	9.079507E-11	5.027938E-7	-4.000000E+1	-6.862600E-6
-4.394082E+1	1.980547E-11	5.069718E-7	-4.500000E+1	-8.675400E-6
-4.871317E+1	2.094077E-11	5.064788E-7	-5.000000E+1	-1.054000E-5
-5.347241E+1	2.195857E-11	4.935788E-7	-5.500000E+1	-1.251200E-5
-5.822090E+1	2.274797E-11	4.742568E-7	-6.000000E+1	-1.457200E-5
-6.297050E+1	2.333697E-11	4.521888E-7	-6.500000E+1	-1.662300E-5
-6.770092E+1	2.376227E-11	4.292178E-7	-7.000000E+1	-1.883100E-5
-7.242659E+1	2.405157E-11	4.070168E-7	-7.500000E+1	-2.107800E-5
-7.714993E+1	2.423667E-11	3.860638E-7	-8.000000E+1	-2.334400E-5
-8.187169E+1	2.434037E-11	3.664408E-7	-8.500000E+1	-2.562300E-5
-8.658075E+1	2.437847E-11	3.479488E-7	-9.000000E+1	-2.800600E-5
-9.129274E+1	2.436667E-11	3.310778E-7	-9.500000E+1	-3.036500E-5
-9.600094E+1	2.431607E-11	3.153708E-7	-1.000000E+2	-3.275500E-5
-1.054158E+2	2.412077E-11	2.871088E-7	-1.100000E+2	-3.754800E-5
-1.148172E+2	2.383857E-11	2.616418E-7	-1.200000E+2	-4.245100E-5
-1.242254E+2	2.349897E-11	2.382528E-7	-1.300000E+2	-4.729800E-5
-1.334683E+2	1.151117E-11	1.653746E-6	-1.400000E+2	-5.349900E-5
END
