CV Measurement
:Program Version
13.8.2003 Moll, 4.2008 Fahrer, 6.2011 Gabrysch
:Program Library
CVIV.llb
:start
18/12/2017 10:54:16
:stop
18/12/2017 10:59:05
:elapsed [s]
289.4
:gpib bus delay [ms]
50
:device
W4-B226-S3
:tester
Andrea
:environment
Probe Station (28-2-019)
:comment
LGAD 50 microns, unirradiated, 20C, guard ring connected
:annealing time [min]
<not set>
:material
p FZ
:temperature [C]
20.00
:ToolID
1102
:GuardRingConnection
1
:Region
0
:Instruments
V source: Keithley 237
- current compilance [A]: 1.000E-3
- integration time: 4 ms
- filter (averaging): 8
- source range: 1.1V
LCR meter: Agilent E4980A
- Frequency: 10000 Hz
- Signal level: 500 mV
- Averaging: 10
:LCR open correction: C[F] , G[S]
4.383E-11, 1.023E-8
:ramp up step [V], delay [s], down step [V], delay[s]
2.0, 1.0, 20.0, 0.5
:set voltage start [V], voltage stop [V], number of steps
-0.0, -100.0, 20
:measured voltage start [V], voltage stop [V], number of steps
-1.0, -140.0, 42
:step mode
voltages from file
:legend
V_detector [V]	Capacitance [F]	Conductivity [S]	Bias [V]	Current Power Supply [A]
BEGIN
-8.668364E-1	1.180723E-9	4.352716E-6	-1.000000E+0	-1.090700E-6
-1.265673E+0	1.080643E-9	4.774816E-6	-1.500000E+0	-1.919300E-6
-1.645988E+0	1.008033E-9	5.015456E-6	-2.000000E+0	-2.899600E-6
-2.013838E+0	9.518921E-10	5.112196E-6	-2.500000E+0	-3.982000E-6
-2.379392E+0	9.057451E-10	5.146106E-6	-3.000000E+0	-5.083200E-6
-2.737914E+0	8.659061E-10	5.159176E-6	-3.500000E+0	-6.242000E-6
-3.072287E+0	8.272651E-10	5.169356E-6	-4.000000E+0	-7.598600E-6
-3.428038E+0	7.972001E-10	5.179266E-6	-4.500000E+0	-8.780100E-6
-3.777269E+0	7.703011E-10	5.190076E-6	-5.000000E+0	-1.001500E-5
-4.474241E+0	7.239591E-10	5.217046E-6	-6.000000E+0	-1.249700E-5
-5.165476E+0	6.850561E-10	5.238776E-6	-7.000000E+0	-1.502600E-5
-5.828385E+0	6.494471E-10	5.249166E-6	-8.000000E+0	-1.778700E-5
-6.514858E+0	6.206691E-10	5.246386E-6	-9.000000E+0	-2.035500E-5
-7.196325E+0	5.949841E-10	5.227556E-6	-1.000000E+1	-2.296400E-5
-8.540214E+0	5.496131E-10	5.152036E-6	-1.200000E+1	-2.833800E-5
-9.907177E+0	5.132831E-10	5.046556E-6	-1.400000E+1	-3.352300E-5
-1.125326E+1	4.809431E-10	4.912646E-6	-1.600000E+1	-3.887900E-5
-1.263146E+1	4.536811E-10	4.772216E-6	-1.800000E+1	-4.397200E-5
-1.401527E+1	4.294231E-10	4.624896E-6	-2.000000E+1	-4.901900E-5
-1.539017E+1	4.069261E-10	4.471006E-6	-2.200000E+1	-5.413900E-5
-1.679950E+1	3.870871E-10	4.324606E-6	-2.400000E+1	-5.897700E-5
-1.819210E+1	3.682581E-10	4.179926E-6	-2.600000E+1	-6.395200E-5
-1.962023E+1	3.514611E-10	4.047666E-6	-2.800000E+1	-6.863600E-5
-2.103994E+1	3.351931E-10	3.919386E-6	-3.000000E+1	-7.338900E-5
-2.466044E+1	2.995931E-10	3.651886E-6	-3.500000E+1	-8.468800E-5
-2.832698E+1	2.680981E-10	3.419896E-6	-4.000000E+1	-9.561000E-5
-3.202794E+1	2.386231E-10	3.147216E-6	-4.500000E+1	-1.062500E-4
-3.583878E+1	2.099721E-10	2.756846E-6	-5.000000E+1	-1.159900E-4
-3.977416E+1	1.780561E-10	2.191496E-6	-5.500000E+1	-1.247100E-4
-4.393051E+1	1.214911E-10	1.488756E-6	-6.000000E+1	-1.316200E-4
-4.833838E+1	1.277377E-11	9.134988E-7	-6.500000E+1	-1.364700E-4
-5.290862E+1	1.186877E-11	6.903968E-7	-7.000000E+1	-1.399900E-4
-5.755456E+1	1.169567E-11	6.165418E-7	-7.500000E+1	-1.428900E-4
-6.220905E+1	1.161187E-11	5.769108E-7	-8.000000E+1	-1.457200E-4
-6.689405E+1	1.155607E-11	5.526218E-7	-8.500000E+1	-1.483000E-4
-7.158028E+1	1.151527E-11	5.349298E-7	-9.000000E+1	-1.508700E-4
-7.627994E+1	1.148127E-11	5.216558E-7	-9.500000E+1	-1.533300E-4
-8.098692E+1	1.145207E-11	5.121288E-7	-1.000000E+2	-1.557300E-4
-9.040700E+1	1.140407E-11	4.979598E-7	-1.100000E+2	-1.604800E-4
-9.982341E+1	1.136677E-11	4.968038E-7	-1.200000E+2	-1.652600E-4
-1.092569E+2	1.133377E-11	5.035818E-7	-1.300000E+2	-1.699000E-4
-1.186196E+2	1.130607E-11	5.314268E-7	-1.400000E+2	-1.751200E-4
END
